strain stress
-1.3053e-5 -0.231
6.1493e-4 -0.2302
1.2429e-3 -0.2295
1.8709e-3 -0.2288
2.4989e-3 -0.2281
3.1269e-3 -0.2273
3.7549e-3 -0.2266
4.3828e-3 -0.2259
5.0108e-3 -0.2252
5.6388e-3 -0.2244
6.2668e-3 -0.2237
6.8948e-3 -0.223
7.5228e-3 -0.2223
8.1507e-3 -0.2215
8.7787e-3 -0.2208
9.4067e-3 -0.2201
0.01 -0.4503
0.0106 -0.4496
0.0113 -0.2179
0.0119 -0.2172
0.0125 -0.2165
0.0132 -0.2157
0.0138 -0.215
0.0144 -0.2143
0.0151 -0.2136
0.0157 -0.2128
0.0163 0.0189
0.017 0.0196
0.0176 0.0203
0.0182 0.021
0.0188 0.0218
0.0195 0.2534
0.0201 0.2542
0.0207 0.2549
0.0214 0.4866
0.022 0.7183
0.0226 0.7189
0.0233 0.9506
0.0239 1.1824
0.0246 1.4141
0.0252 1.6457
0.0259 1.8774
0.0265 2.1091
0.0271 2.3408
0.0278 2.5725
0.0278 2.8035
0.0284 3.0351
0.0291 3.2668
0.0297 3.4985
0.0304 3.7302
0.0304 3.9612
0.0304 4.1921
0.0304 4.4231
0.031 4.6548
0.031 4.8857
0.0311 5.1167
0.0317 5.3484
0.0317 5.5793
0.0324 5.811
0.0324 6.042
0.033 6.2737
0.033 6.5046
0.0337 6.7363
0.0337 6.9673
0.0343 7.199
0.0343 7.4299
0.035 7.6616
0.035 7.8925
0.0356 8.1243
0.0356 8.3552
0.0363 8.5869
0.0363 8.8178
0.0363 9.0489
0.0369 9.2805
0.037 9.5114
0.0376 9.7431
0.0376 9.9741
0.0383 10.2058
0.0383 10.4368
0.0389 10.6684
0.0389 10.8994
0.0389 11.1304
0.0396 11.362
0.0396 11.5931
0.0402 11.8247
0.0402 12.0557
0.0409 12.2873
0.0409 12.5184
0.0415 12.75
0.0415 12.9809
0.0422 13.2127
0.0422 13.4437
0.0422 13.6745
0.0429 13.9062
0.0429 14.1373
0.0435 14.369
0.0435 14.5998
0.0442 14.8316
0.0442 15.0626
0.0448 15.2942
0.0448 15.5252
0.0455 15.7569
0.0455 15.9879
0.0461 16.2195
0.0461 16.4505
0.0462 16.6815
0.0468 16.9132
0.0468 17.1441
0.0474 17.3758
0.0475 17.6068
0.0481 17.8385
0.0481 18.0694
0.0488 18.3011
0.0488 18.5321
0.0493 18.7638
0.0493 18.9947
0.0493 19.2257
0.0501 19.4574
0.0501 19.6883
0.0507 19.92
0.0507 20.151
0.0514 20.3827
0.0514 20.6136
0.052 20.8453
0.0521 21.0763
0.0527 21.308
0.0527 21.5389
0.0533 21.7706
0.0534 22.0016
0.054 22.2333
0.054 22.4642
0.054 22.6952
0.0547 22.9268
0.0547 23.1578
0.0553 23.3895
0.0553 23.6205
0.056 23.8521
0.056 24.0831
0.0566 24.3148
0.0566 24.5457
0.0567 24.7767
0.0573 25.0084
0.0573 25.2394
0.058 25.4711
0.058 25.702
0.0586 25.9337
0.0586 26.1647
0.0593 26.3963
0.0593 26.6273
0.0599 26.859
0.0599 27.09
0.0606 27.3216
0.0606 27.5526
0.0606 27.7835
0.0612 28.0153
0.0613 28.2462
0.0619 28.4779
0.0619 28.7088
0.0625 28.9405
0.0626 29.1715
0.0632 29.4032
0.0632 29.6341
0.0639 29.8659
0.0639 30.0968
0.0645 30.3285
0.0645 30.5594
0.0652 30.7912
0.0652 31.0221
0.0652 31.253
0.0658 31.4848
0.0658 31.7158
0.0665 31.9474
0.0665 32.1784
0.0671 32.4101
0.0672 32.6411
0.0678 32.8727
0.0678 33.1037
0.0678 33.3347
0.0685 33.5663
0.0685 33.7973
0.0691 34.029
0.0691 34.26
0.0698 34.4916
0.0698 34.7226
0.0704 34.9543
0.0704 35.1853
0.0711 35.4169
0.0711 35.6479
0.0717 35.8796
0.0717 36.1106
0.0724 36.3422
0.0724 36.5732
0.0724 36.8042
0.0731 37.0359
0.0731 37.2668
0.0737 37.4985
0.0737 37.7295
0.0744 37.9612
0.0744 38.1921
0.075 38.4238
0.075 38.6548
0.0757 38.8864
0.0757 39.1174
0.0757 39.3484
0.0763 39.58
0.0763 39.811
0.077 40.0427
0.077 40.2737
0.0776 40.5053
0.0777 40.7363
0.0783 40.968
0.0783 41.199
0.079 41.4307
0.079 41.6616
0.079 41.8925
0.0796 42.1243
0.0796 42.3552
0.0803 42.5869
0.0803 42.8178
0.0809 43.0496
0.0809 43.2805
0.0816 43.5122
0.0816 43.7431
0.0822 43.9748
0.0822 44.2058
0.0829 44.4375
0.0829 44.6684
0.0835 44.9002
0.0836 45.1311
0.0836 45.362
0.0842 45.5937
0.0842 45.8247
0.0849 46.0564
0.0849 46.2873
0.0855 46.5191
0.0855 46.75
0.0862 46.9817
0.0862 47.2127
0.0868 47.4444
0.0868 47.6753
0.0869 47.9062
0.0875 48.138
0.0875 48.3689
0.0881 48.6006
0.0882 48.8316
0.0888 49.0633
0.0888 49.2942
0.0895 49.5259
0.0895 49.7569
0.0901 49.9886
0.0901 50.2195
0.0901 50.4505
0.0908 50.6822
0.0908 50.9132
0.0914 51.1448
0.0914 51.3758
0.0921 51.6075
0.0921 51.8384
0.0927 52.0701
0.0928 52.3011
0.0934 52.5328
0.0934 52.7637
0.094 52.9954
0.0941 53.2264
0.0941 53.4574
0.0947 53.689
0.0947 53.92
0.0954 54.1517
0.0954 54.3827
0.096 54.6143
0.096 54.8453
0.0967 55.077
0.0967 55.308
0.0973 55.5396
0.0973 55.7706
0.0974 56.0016
0.098 56.2333
0.098 56.4642
0.0987 56.6959
0.0987 56.9268
0.0993 57.1586
0.0999 57.3902
0.1 57.6212
0.1006 57.8529
0.1012 58.0846
0.1019 58.3163
0.1025 58.5479
0.1032 58.7795
0.1038 59.0113
0.1044 59.012
0.1051 59.0128
0.1057 59.0135
0.1063 59.0142
0.1069 59.0149
0.1076 59.0157
0.1082 59.0164
0.1088 59.0171
0.1095 59.0178
0.1101 59.0186
0.1107 59.0193
0.1113 59.02
0.112 59.0208
0.1126 59.0215
0.1132 58.7912
0.1138 58.792
0.1145 58.7927
0.1151 58.7934
0.1157 58.7941
0.1164 58.7949
0.117 58.7955
0.1176 58.7963
0.1182 58.797
0.1189 58.7978
0.1195 58.7985
0.1201 58.7992
0.1207 58.7999
0.1214 59.0316
0.1219 59.0324
0.1226 59.0331
0.1233 59.0338
0.1239 59.0345
0.1245 59.0352
0.1252 59.036
0.1258 59.0367
0.1264 59.2684
0.1271 59.2691
0.1277 59.2698
0.1283 59.2706
0.1289 59.2713
0.1296 59.503
0.1302 59.5037
0.1308 59.5044
0.1315 59.5051
0.132 59.7368
0.1327 59.7376
0.1334 59.7383
0.134 59.7389
0.1346 59.7397
0.1353 59.9714
0.1359 59.9722
0.1365 59.9729
0.1372 60.2046
0.1378 60.2053
0.1384 60.437
0.1391 60.4377
0.1397 60.4384
0.1403 60.6701
0.1409 60.6707
0.1416 60.9024
0.1421 60.9033
0.1429 61.1349
0.1435 61.1357
0.1441 61.3674
0.1448 61.3681
0.1454 61.5998
0.146 61.8315
0.1467 61.8322
0.1473 62.0639
0.1479 62.0646
0.1486 62.2963
0.1492 62.528
0.1498 62.5287
0.1505 62.7604
0.1511 62.9921
0.1518 62.9928
0.1524 63.2245
0.153 63.4562
0.1537 63.4569
0.1543 63.6886
0.1549 63.9203
0.1556 64.1519
0.1562 64.1527
0.1569 64.3844
0.1575 64.616
0.1581 64.6168
0.1588 64.8485
0.1594 65.0801
0.16 65.0809
0.1607 65.3126
0.1613 65.5442
0.162 65.7759
0.1626 65.7767
0.1632 66.0083
0.1639 66.24
0.1645 66.4717
0.1651 66.4724
0.1658 66.7041
0.1663 66.9358
0.167 66.9365
0.1677 67.1682
0.1683 67.3999
0.169 67.6316
0.1696 67.8633
0.1702 67.8639
0.1709 68.0957
0.1715 68.3274
0.1722 68.3281
0.1728 68.5598
0.1734 68.7915
0.1741 69.0232
0.1747 69.0239
0.1753 69.2556
0.176 69.4873
0.1766 69.488
0.1773 69.7197
0.1779 69.9514
0.1785 69.9521
0.1792 70.1838
0.1798 70.4155
0.1804 70.4162
0.1811 70.6479
0.1817 70.8796
0.1823 70.8803
0.183 71.112
0.1836 71.3437
0.1843 71.5754
0.1849 71.576
0.1855 71.8077
0.1862 72.0395
0.1868 72.0402
0.1874 72.2719
0.1881 72.2726
0.1887 72.5043
0.1894 72.736
0.19 72.7367
0.1905 72.9684
0.1913 73.2001
0.1919 73.2008
0.1925 73.4325
0.1932 73.6642
0.1938 73.6649
0.1944 73.8965
0.1951 73.8973
0.1957 74.129
0.1964 74.3607
0.197 74.3614
0.1976 74.5931
0.1983 74.5937
0.1989 74.8255
0.1995 74.8262
0.2002 75.0579
0.2008 75.2896
0.2014 75.2903
0.2021 75.522
0.2027 75.5227
0.2033 75.7544
0.204 75.7551
0.2046 75.9868
0.2052 75.9876
0.2059 76.2193
0.2065 76.22
0.2071 76.4517
0.2078 76.4524
0.2084 76.6841
0.209 76.6848
0.2097 76.9165
0.2103 77.1482
0.211 77.1489
0.2116 77.3806
0.2122 77.3813
0.2129 77.613
0.2135 77.6137
0.2141 77.8454
0.2147 77.846
0.2154 78.0778
0.216 78.0786
0.2167 78.3102
0.2173 78.311
0.2179 78.5427
0.2186 78.5434
0.2192 78.7751
0.2198 78.7758
0.2205 79.0075
0.2211 79.0082
0.2217 79.2399
0.2224 79.2406
0.223 79.2413
0.2236 79.4729
0.2243 79.4738
0.2248 79.7054
0.2255 79.7062
0.2262 79.9379
0.2268 79.9386
0.2275 80.1703
0.2281 80.171
0.2287 80.4027
0.2293 80.4034
0.23 80.4041
0.2306 80.6358
0.2312 80.6364
0.2319 80.8681
0.2325 80.869
0.2332 81.1006
0.2338 81.1014
0.2344 81.1021
0.2351 81.3338
0.2357 81.3345
0.2363 81.5662
0.2368 81.5669
0.2376 81.5676
0.2382 81.7993
0.2388 81.8001
0.2395 81.8008
0.2401 82.0325
0.2407 82.0332
0.2414 82.0339
0.242 82.2656
0.2426 82.2663
0.2433 82.2671
0.2439 82.4987
0.2445 82.4995
0.2452 82.5002
0.2458 82.7319
0.2464 82.7326
0.2464 82.9636
0.2471 82.9643
0.2477 82.9649
0.2483 82.9657
0.249 83.1974
0.2496 83.1982
0.2502 83.1989
0.2509 83.1996
0.2515 83.2003
0.2521 83.432
0.2528 83.4327
0.2534 83.4335
0.254 83.6652
0.2546 83.6659
0.2547 83.8968
0.2553 83.8976
0.2559 83.8982
0.2565 83.899
0.2572 83.8997
0.2578 84.1314
0.2584 84.1322
0.2591 84.1329
0.2597 84.1336
0.2603 84.3653
0.261 84.366
0.2616 84.3667
0.2622 84.3675
0.2629 84.5992
0.2635 84.5998
0.2641 84.6006
0.2647 84.6013
0.2654 84.833
0.266 84.8336
0.2666 84.8345
0.2673 84.8352
0.2679 84.8359
0.2685 85.0676
0.2692 85.0683
0.2698 85.0691
0.2704 85.0698
0.2711 85.0705
0.2717 85.3022
0.2723 85.3029
0.273 85.3035
0.2736 85.3044
0.2742 85.3051
0.2748 85.5368
0.2755 85.5375
0.2761 85.5382
0.2767 85.539
0.2774 85.5396
0.278 85.5404
0.2786 85.7721
0.2793 85.7728
0.2799 85.7734
0.2805 85.7743
0.2811 85.775
0.2818 85.7757
0.2824 85.7764
0.283 85.7772
0.2837 85.7779
0.2843 86.0096
0.2849 86.0103
0.2856 86.011
0.2862 86.0118
0.2868 86.0125
0.2873 86.0132
0.2881 86.0139
0.2887 86.0147
0.2893 86.0154
0.2899 86.0161
0.2906 86.0168
0.2912 86.2485
0.2918 86.2492
0.2925 86.25
0.2931 86.2507
0.2937 86.2514
0.2944 86.2521
0.295 86.2529
0.2955 86.2536
0.2962 86.2543
0.2969 86.255
0.2974 86.2558
0.2981 86.2565
0.2988 86.2572
0.2993 86.2579
0.3 86.2587
0.3006 86.2594
0.3013 86.2601
0.3019 86.2608
0.3025 86.2616
0.3031 86.2623
0.3038 86.263
0.3044 86.2637
0.305 86.2645
0.3057 86.2652
0.3063 86.2659
0.3069 86.2666
0.3075 86.2674
0.3082 86.2681
0.3088 86.2688
0.3094 86.2695
0.3101 86.2703
0.3107 86.271
0.3113 86.2717
0.3119 86.2724
0.3126 86.2732
0.3132 86.2739
0.3138 86.2746
0.3145 86.2753
0.3151 86.0451
0.3157 86.0458
0.3163 86.0466
0.317 86.0473
0.3176 86.048
0.3182 86.0487
0.3188 86.0495
0.3195 86.0502
0.3201 86.0509
0.3207 86.0516
0.3213 86.0524
0.322 86.0531
0.3226 86.0538
0.3232 86.0545
0.3239 86.0553
0.3245 86.056
0.3251 85.8258
0.3256 85.8265
0.3264 85.8272
0.327 85.8279
0.3276 85.8287
0.3282 85.8294
0.3289 85.83
0.3295 85.8308
0.3301 85.8316
0.3308 85.8323
0.3314 85.833
0.332 85.6028
0.3326 85.6035
0.3333 85.6042
0.3338 85.6049
0.3345 85.6057
0.3351 85.6064
0.3357 85.6071
0.3364 85.6078
0.337 85.6086
0.3376 85.3783
0.3383 85.3791
0.3389 85.3798
0.3395 85.3805
0.3401 85.3812
0.3408 85.382
0.3414 85.3827
0.342 85.3834
0.3426 85.1532
0.3433 85.1539
0.3439 85.1546
0.3445 85.1553
0.3452 85.1561
0.3458 85.1568
0.3464 84.9266
0.347 84.9273
0.3477 84.928
0.3483 84.9287
0.3489 84.9295
0.3495 84.6992
0.3502 84.6999
0.3508 84.7006
0.3514 84.7014
0.3519 84.7021
0.3527 84.4719
0.3533 84.4726
0.3538 84.4733
0.3545 84.4741
0.3552 84.2438
0.3558 84.2446
0.3564 84.2453
0.357 84.246
0.3577 84.2467
0.3583 84.0165
0.3589 84.0172
0.3595 84.0179
0.3602 84.0187
0.3608 83.7884
0.3614 83.7892
0.362 83.7899
0.3627 83.7906
0.3633 83.5604
0.3639 83.5611
0.3645 83.5617
0.3652 83.5625
0.3658 83.3323
0.3664 83.333
0.367 83.3338
0.3676 83.1035
0.3683 83.1042
0.3689 83.105
0.3695 83.1057
0.37 82.8755
0.3708 82.8761
0.3714 82.8769
0.3719 82.6467
0.3726 82.6474
0.3733 82.4172
0.3739 82.4179
0.3739 82.1869
0.3745 82.1876
0.3745 82.1876
