strain	stress	trans
0.0015717	1.3618	0.4066
0.0020956	1.3618	0.4066
0.0026195	1.3618	0.4066
0.0031434	1.3618	0.4066
0.0036673	1.1673	0.4066
0.0041912	0.9727	0.4066
0.0047151	0.9727	0.4066
0.005239	0.9727	0.4067
0.0057629	0.9727	0.4067
0.0062868	0.9727	0.4057
0.0068107	0.9727	0.4057
0.0073346	0.9727	0.4057
0.0078585	0.9727	0.4057
0.0083824	0.9727	0.4057
0.0089064	0.9727	0.4057
0.0094303	0.9727	0.4057
0.0099542	0.9727	0.4048
0.0105	0.9727	0.4048
0.011	1.1673	0.4048
0.0115	1.1673	0.4039
0.012	1.1673	0.4039
0.0126	1.3618	0.4039
0.0131	1.3618	0.4029
0.0136	1.3618	0.4029
0.0141	1.5564	0.4029
0.0147	1.5564	0.402
0.0152	1.5564	0.402
0.0157	1.751	0.4011
0.0162	1.751	0.4001
0.0168	1.9455	0.4001
0.0173	1.9455	0.3992
0.0178	2.1401	0.3992
0.0183	2.3346	0.3982
0.0189	2.5292	0.3982
0.0194	2.7237	0.3973
0.0199	2.9183	0.3963
0.0204	3.1128	0.3963
0.021	3.3074	0.3963
0.0215	3.5019	0.3955
0.022	4.0856	0.3945
0.0225	4.4747	0.3936
0.0231	4.8638	0.3926
0.0236	5.2529	0.3917
0.0241	5.642	0.3908
0.0246	6.2257	0.3898
0.0251	6.6148	0.3889
0.0257	7.0039	0.3889
0.0262	7.393	0.3889
0.0267	7.7821	0.3879
0.0272	8.1712	0.387
0.0278	8.5603	0.386
0.0283	8.9494	0.3851
0.0288	9.5331	0.3851
0.0293	9.9222	0.3833
0.0299	10.3113	0.3833
0.0304	10.7004	0.3833
0.0309	11.0895	0.3822
0.0314	11.4786	0.3814
0.032	11.8677	0.3804
0.0325	12.2568	0.3795
0.033	12.6459	0.3786
0.0335	13.035	0.3767
0.0341	13.4241	0.3758
0.0346	13.8132	0.3758
0.0351	14.3969	0.3758
0.0356	14.786	0.3748
0.0361	15.1751	0.3739
0.0367	15.5642	0.3729
0.0372	15.9533	0.3719
0.0377	16.3424	0.3711
0.0382	16.7315	0.37
0.0388	17.1206	0.37
0.0393	17.5097	0.37
0.0398	17.8988	0.3692
0.0403	18.4825	0.3683
0.0409	18.8716	0.3673
0.0414	19.2607	0.3664
0.0419	19.6498	0.3664
0.0424	20.0389	0.3645
0.043	20.428	0.3636
0.0435	20.8171	0.3626
0.044	21.2062	0.3626
0.0445	21.5953	0.3626
0.0451	21.9844	0.3617
0.0456	22.5681	0.3608
0.0461	22.9572	0.3598
0.0466	23.3463	0.3578
0.0472	23.7354	0.357
0.0477	24.1245	0.3561
0.0482	24.5135	0.3561
0.0487	24.9026	0.3561
0.0492	25.2918	0.3551
0.0498	25.6808	0.3542
0.0503	26.2646	0.3533
0.0508	26.6537	0.3523
0.0513	27.0428	0.3504
0.0519	27.4319	0.3495
0.0524	27.821	0.3495
0.0529	28.2101	0.3495
0.0534	28.5992	0.3486
0.054	28.9883	0.3476
0.0545	29.3774	0.3467
0.055	29.7665	0.3458
0.0555	30.1556	0.3448
0.0561	30.7393	0.3439
0.0566	31.1284	0.3429
0.0571	31.5175	0.3429
0.0576	31.9066	0.3429
0.0582	32.2957	0.342
0.0587	32.6848	0.3411
0.0592	33.0739	0.3401
0.0597	33.463	0.3382
0.0602	33.8521	0.3373
0.0608	34.4358	0.3364
0.0613	34.8249	0.3364
0.0618	35.214	0.3364
0.0623	35.6031	0.3354
0.0629	35.9922	0.3345
0.0634	36.3813	0.3336
0.0639	36.7704	0.3317
0.0644	37.1595	0.3307
0.065	37.5486	0.3298
0.0655	37.7431	0.3298
0.066	37.7431	0.3298
0.0665	37.7431	0.3289
0.0671	37.7431	0.3279
0.0676	37.7431	0.327
0.0681	37.7431	0.3261
0.0686	37.7431	0.3251
0.0692	37.7431	0.3242
0.0697	37.7431	0.3242
0.0702	37.7431	0.3242
0.0707	37.7431	0.3232
0.0713	38.1323	0.3223
0.0718	38.5213	0.3214
0.0723	38.9104	0.3204
0.0728	39.4942	0.3195
0.0733	39.8833	0.3176
0.0739	40.2724	0.3176
0.0744	40.6615	0.3176
0.0749	41.0506	0.3167
0.0754	41.4397	0.3157
0.076	41.8288	0.3148
0.0765	42.2179	0.3139
0.077	42.607	0.312
0.0775	42.9961	0.3111
0.0781	43.3852	0.3111
0.0786	43.9689	0.3111
0.0791	44.358	0.3101
0.0796	44.7471	0.3092
0.0802	45.1362	0.3082
0.0807	45.5253	0.3073
0.0812	45.9144	0.3073
0.0817	46.3035	0.3054
0.0823	46.6926	0.3045
0.0828	47.0817	0.3035
0.0833	47.6654	0.3035
0.0838	48.0545	0.3035
0.0843	48.4436	0.3026
0.0849	48.8327	0.3017
0.0854	49.2218	0.3007
0.0859	49.6109	0.2989
0.0864	50	0.2979
0.087	50.3891	0.297
0.0875	50.7782	0.297
0.088	51.1673	0.297
0.0885	51.751	0.2961
0.0891	52.1401	0.2951
0.0896	52.5292	0.2942
0.0901	52.9183	0.2932
0.0906	53.3074	0.2913
0.0912	53.6965	0.2904
0.0917	54.0856	0.2904
0.0922	54.4747	0.2904
0.0927	54.8638	0.2894
0.0933	55.2529	0.2886
0.0937	55.642	0.2876
0.0943	56.2257	0.2867
0.0948	56.6148	0.2848
0.0954	57.0039	0.2839
0.0959	57.393	0.2839
0.0964	57.7821	0.2839
0.0969	58.1712	0.2829
0.0974	58.5603	0.282
0.098	58.9494	0.281
0.0985	59.5331	0.2801
0.099	59.9222	0.2801
0.0995	60.3113	0.2792
0.1001	60.7004	0.2782
0.1006	61.0895	0.2772
0.1011	61.4786	0.2772
0.1016	61.8677	0.2772
0.1022	62.2568	0.2764
0.1027	62.6459	0.2753
0.1032	63.035	0.2745
0.1037	63.4241	0.2735
0.1043	63.8132	0.2717
0.1048	64.3969	0.2717
0.1053	64.786	0.2717
0.1058	65.1751	0.2707
0.1064	65.5642	0.2698
0.1069	65.9533	0.2689
0.1074	66.3424	0.2679
0.1078	66.7315	0.266
0.1084	67.1206	0.2651
0.109	67.5097	0.2642
0.1095	67.8988	0.2631
0.11	68.2879	0.2623
0.1105	68.8716	0.2623
0.1111	69.2607	0.2614
0.1116	69.6498	0.2604
0.1121	70.0389	0.2604
0.1126	70.428	0.2595
0.1132	70.6226	0.2595
0.1137	70.8171	0.2585
0.1142	71.0117	0.2576
0.1147	71.2062	0.2576
0.1153	71.2062	0.2576
0.1158	71.2062	0.2567
0.1163	71.2062	0.2567
0.1168	71.2062	0.2557
0.1174	71.2062	0.2557
0.1179	71.2062	0.2557
0.1184	71.2062	0.2548
0.1189	71.2062	0.2548
0.1194	71.2062	0.2548
0.12	71.2062	0.2548
0.1205	71.0117	0.2539
0.121	71.0117	0.2539
0.1215	71.0117	0.2539
0.1221	71.0117	0.2539
0.1226	71.0117	0.2539
0.1231	71.0117	0.2539
0.1236	71.0117	0.253
0.1242	71.0117	0.253
0.1247	71.0117	0.253
0.1252	71.0117	0.253
0.1257	71.0117	0.253
0.1263	71.0117	0.253
0.1268	71.0117	0.253
0.1273	71.0117	0.253
0.1278	71.0117	0.253
0.1284	71.0117	0.253
0.1289	71.0117	0.253
0.1294	71.0117	0.253
0.1299	71.0117	0.2521
0.1305	71.2062	0.2521
0.131	71.2062	0.2521
0.1315	71.2062	0.2521
0.132	71.2062	0.2521
0.1325	71.2062	0.2521
0.1331	71.2062	0.2521
0.1336	71.4008	0.2521
0.1341	71.4008	0.2511
0.1346	71.4008	0.2511
0.1352	71.4008	0.2511
0.1357	71.4008	0.2511
0.1362	71.5953	0.2511
0.1367	71.5953	0.2511
0.1373	71.5953	0.2511
0.1378	71.5953	0.2511
0.1383	71.7899	0.2502
0.1388	71.7899	0.2502
0.1394	71.7899	0.2502
0.1399	71.7899	0.2502
0.1404	71.9844	0.2502
0.1409	71.9844	0.2502
0.1415	71.9844	0.2493
0.142	72.179	0.2493
0.1425	72.179	0.2493
0.143	72.3735	0.2493
0.1435	72.3735	0.2493
0.1441	72.3735	0.2484
0.1446	72.5681	0.2484
0.1451	72.5681	0.2484
0.1456	72.5681	0.2484
0.1461	72.7626	0.2474
0.1467	72.7626	0.2474
0.1472	72.9572	0.2474
0.1477	72.9572	0.2474
0.1482	73.1518	0.2465
0.1488	73.1518	0.2465
0.1493	73.3463	0.2465
0.1498	73.3463	0.2465
0.1504	73.5409	0.2456
0.1509	73.5409	0.2456
0.1514	73.7354	0.2456
0.1519	73.7354	0.2456
0.1525	73.93	0.2447
0.153	73.93	0.2447
0.1535	74.1245	0.2447
0.154	74.3191	0.2447
0.1546	74.3191	0.2437
0.1551	74.5135	0.2437
0.1556	74.7082	0.2437
0.1561	74.7082	0.2437
0.1566	74.9026	0.2428
0.1572	74.9026	0.2428
0.1577	75.0973	0.2428
0.1582	75.2918	0.2419
0.1587	75.2918	0.2419
0.1593	75.4864	0.2419
0.1598	75.6808	0.2419
0.1602	75.6808	0.2409
0.1608	75.8755	0.2409
0.1614	76.07	0.2409
0.1619	76.2646	0.24
0.1623	76.2646	0.24
0.1629	76.4591	0.24
0.1635	76.6537	0.2391
0.164	76.8481	0.2391
0.1645	76.8481	0.2391
0.165	77.0428	0.2391
0.1656	77.2374	0.2381
0.1661	77.2374	0.2381
0.1666	77.4319	0.2381
0.1671	77.6265	0.2372
0.1676	77.821	0.2372
0.1682	77.821	0.2372
0.1687	78.0156	0.2363
0.1692	78.0156	0.2363
0.1697	78.0156	0.2363
0.1703	78.2101	0.2363
0.1708	78.4047	0.2353
0.1713	78.7938	0.2354
0.1718	78.7938	0.2344
0.1724	78.9883	0.2344
0.1729	79.1829	0.2344
0.1734	79.3774	0.2335
0.1739	79.3774	0.2335
0.1745	79.572	0.2335
0.175	79.7665	0.2325
0.1755	79.9611	0.2326
0.176	79.9611	0.2326
0.1766	80.1556	0.2316
0.1771	80.3502	0.2316
0.1776	80.3502	0.2316
0.1781	80.5447	0.2307
0.1787	80.7393	0.2307
0.1792	80.9339	0.2297
0.1797	80.9339	0.2298
0.1802	81.1284	0.2298
0.1807	81.323	0.2288
0.1813	81.323	0.2288
0.1818	81.5175	0.2279
0.1823	81.7121	0.2279
0.1828	81.7121	0.2269
0.1834	81.9066	0.2269
0.1839	82.1012	0.227
0.1844	82.2957	0.226
0.1849	82.2957	0.226
0.1855	82.4903	0.2251
0.186	82.4903	0.2251
0.1865	82.6848	0.2241
0.187	82.8794	0.2241
0.1876	82.8794	0.2242
0.1881	83.0739	0.2232
0.1886	83.2685	0.2232
0.1891	83.2685	0.2223
0.1897	83.463	0.2223
0.1902	83.6576	0.2213
0.1907	83.6576	0.2213
0.1912	83.8521	0.2204
0.1917	84.0467	0.2204
0.1923	84.0467	0.2195
0.1928	84.2412	0.2195
0.1933	84.4358	0.2185
0.1938	84.4358	0.2185
0.1944	84.6303	0.2176
0.1949	84.8249	0.2176
0.1954	84.8249	0.2167
0.1959	85.0195	0.2167
0.1965	85.214	0.2157
0.197	85.214	0.2157
0.1975	85.4086	0.2147
0.198	85.6031	0.2147
0.1985	85.6031	0.2139
0.1991	85.7976	0.2139
0.1996	85.9922	0.2129
0.2001	85.9922	0.212
0.2006	86.1868	0.212
0.2012	86.1868	0.2111
0.2017	86.3813	0.2111
0.2022	86.5758	0.2101
0.2028	86.5758	0.2101
0.2033	86.7704	0.2092
0.2038	86.7704	0.2092
0.2043	86.9649	0.2082
0.2048	86.9649	0.2083
0.2054	87.1595	0.2073
0.2059	87.3541	0.2073
0.2064	87.3541	0.2064
0.2069	87.5486	0.2064
0.2075	87.5486	0.2054
0.208	87.7431	0.2054
0.2085	87.7431	0.2045
0.209	87.9377	0.2045
0.2096	87.9377	0.2036
0.2101	88.1323	0.2036
0.2106	88.1323	0.2026
0.2111	88.3268	0.2026
0.2117	88.5213	0.2017
0.2122	88.5213	0.2017
0.2127	88.5213	0.2008
0.2132	88.716	0.2008
0.2138	88.9104	0.1998
0.2143	88.9104	0.1989
0.2147	89.1051	0.1989
0.2153	89.1051	0.1989
0.2158	89.2995	0.198
0.2164	89.2995	0.198
0.2169	89.4942	0.197
0.2174	89.4942	0.197
0.2179	89.6886	0.1961
0.2185	89.6886	0.1961
0.219	89.8833	0.1952
0.2195	89.8833	0.1952
0.22	90.0778	0.1942
0.2206	90.0778	0.1942
0.2211	90.2724	0.1942
0.2216	90.2724	0.1933
0.2221	90.4668	0.1933
0.2227	90.4668	0.1924
0.2232	90.6615	0.1924
0.2237	90.6615	0.1924
0.2242	90.8559	0.1914
0.2248	90.8559	0.1914
0.2253	91.0506	0.1905
0.2258	91.0506	0.1905
0.2263	91.2451	0.1896
0.2269	91.2451	0.1896
0.2274	91.4397	0.1896
0.2279	91.4397	0.1886
0.2284	91.6341	0.1886
0.2288	91.6341	0.1877
0.2295	91.8288	0.1877
0.23	91.8288	0.1867
0.2305	91.8288	0.1868
0.231	92.0233	0.1858
0.2316	92.0233	0.1858
0.2321	92.2179	0.1849
0.2326	92.2179	0.1849
0.2331	92.4125	0.1839
0.2337	92.4125	0.1839
0.2342	92.607	0.183
0.2347	92.607	0.183
0.2352	92.8016	0.1821
0.2358	92.8016	0.1811
0.2363	92.8016	0.1811
0.2368	92.9961	0.1802
0.2373	92.9961	0.1802
0.2379	93.1907	0.1793
0.2384	93.1907	0.1783
0.2389	93.3852	0.1783
0.2394	93.3852	0.1774
0.2399	93.3852	0.1774
0.2405	93.5798	0.1764
0.241	93.5798	0.1755
0.2415	93.7743	0.1755
0.242	93.7743	0.1746
0.2426	93.7743	0.1736
0.2431	93.9689	0.1736
0.2436	93.9689	0.1727
0.2441	93.9689	0.1718
0.2447	94.1634	0.1718
0.2452	94.1634	0.1708
0.2457	94.1634	0.1699
0.2462	94.358	0.1699
0.2468	94.358	0.1699
0.2473	94.358	0.169
0.2478	94.5525	0.168
0.2483	94.5525	0.1661
0.2489	94.5525	0.1662
0.2494	94.7471	0.1652
0.2499	94.7471	0.1643